Elevation (deg) - Measured	
0	-27.5
0.005	-27.5
0.01	-27.5
0.015	-27.5
0.02	-27.5
0.025	-27.5
0.03	-27.5
0.035	-27.5
0.04	-27.5
0.045	-27.5
0.05	-27.5
0.055	-27.5
0.06	-27.5
0.065	-27.5
0.07	-27.5
0.075	-27.5
0.08	-27.5
0.085	-27.5
0.09	-27.5
0.095	-27.5
0.1	-27.5
0.105	-27.5
0.11	-27.5
0.115	-27.5
0.12	-27.5
0.125	-27.5
0.13	-27.5
0.135	-27.4121
0.14	-27.4121
0.145	-27.4121
0.15	-27.4121
0.155	-27.3242
0.16	-27.3242
0.165	-27.3242
0.17	-27.3242
0.175	-27.2363
0.18	-27.2363
0.185	-27.2363
0.19	-27.1484
0.195	-27.1484
0.2	-27.1484
0.205	-27.0605
0.21	-26.9727
0.215	-26.9727
0.22	-26.8848
0.225	-26.8848
0.23	-26.7969
0.235	-26.709
0.24	-26.709
0.245	-26.6211
0.25	-26.5332
0.255	-26.5332
0.26	-26.3574
0.265	-26.3574
0.27	-26.2695
0.275	-26.1816
0.28	-26.0937
0.285	-25.918
0.29	-25.918
0.295	-25.8301
0.3	-25.5664
0.305	-25.5664
0.31	-25.3906
0.315	-25.3027
0.32	-25.2148
0.325	-25.127
0.33	-24.8633
0.335	-24.7754
0.34	-24.6875
0.345	-24.5117
0.35	-24.3359
0.355	-24.3359
0.36	-23.9844
0.365	-23.8086
0.37	-23.7207
0.375	-23.2812
0.38	-23.1934
0.385	-22.8418
0.39	-22.5781
0.395	-22.4023
0.4	-22.2266
0.405	-22.1387
0.41	-21.875
0.415	-21.7871
0.42	-21.5234
0.425	-21.4355
0.43	-21.3477
0.435	-21.084
0.44	-20.9961
0.445	-20.7324
0.45	-20.6445
0.455	-20.4687
0.46	-20.293
0.465	-20.2051
0.47	-20.0293
0.475	-19.9414
0.48	-19.8535
0.485	-19.6777
0.49	-19.3262
0.495	-19.2383
0.5	-19.1504
0.505	-18.9746
0.51	-18.8867
0.515	-18.7988
0.52	-18.5352
0.525	-18.4473
0.53	-18.3594
0.535	-18.0078
0.54	-17.832
0.545	-17.6563
0.55	-17.5684
0.555	-17.3926
0.56	-17.2168
0.565	-17.041
0.57	-16.9531
0.575	-16.8652
0.58	-16.6895
0.585	-16.6016
0.59	-16.3379
0.595	-16.25
0.6	-16.1621
0.605	-15.8984
0.61	-15.8105
0.615	-15.7227
0.62	-15.3711
0.625	-15.2832
0.63	-15.1953
0.635	-14.9316
0.64	-14.8437
0.645	-14.5801
0.65	-14.4922
0.655	-14.4043
0.66	-14.2285
0.665	-14.1406
0.67	-14.0527
0.675	-13.7891
0.68	-13.7012
0.685	-13.5254
0.69	-13.4375
0.695	-13.3496
0.7	-13.1738
0.705	-13.0859
0.71	-12.998
0.715	-12.8223
0.72	-12.7344
0.725	-12.6465
0.73	-12.4707
0.735	-12.3828
0.74	-12.2949
0.745	-12.1191
0.75	-12.0313
0.755	-12.0313
0.76	-11.7676
0.765	-11.6797
0.77	-11.6797
0.775	-11.5039
0.78	-11.416
0.785	-11.3281
0.79	-11.1523
0.795	-11.0645
0.8	-10.9766
0.805	-10.8008
0.81	-10.7129
0.815	-10.625
0.82	-10.5371
0.825	-10.4492
0.83	-10.2734
0.835	-10.2734
0.84	-10.1855
0.845	-10.0098
0.85	-9.92188
0.855	-9.92188
0.86	-9.6582
0.865	-9.6582
0.87	-9.57031
0.875	-9.48242
0.88	-9.39453
0.885	-9.30664
0.89	-9.21875
0.895	-9.13086
0.9	-9.04297
0.905	-8.95508
0.91	-8.86719
0.915	-8.7793
0.92	-8.69141
0.925	-8.69141
0.93	-8.60352
0.935	-8.51563
0.94	-8.51563
0.945	-8.42773
0.95	-8.33984
0.955	-8.25195
0.96	-8.16406
0.965	-8.16406
0.97	-8.07617
0.975	-7.98828
0.98	-7.98828
0.985	-7.90039
0.99	-7.8125
0.995	-7.8125
1	-7.72461
1.005	-7.63672
1.01	-7.54883
1.015	-7.54883
1.02	-7.46094
1.025	-7.46094
1.03	-7.37305
1.035	-7.37305
1.04	-7.28516
1.045	-7.19727
1.05	-7.19727
1.055	-7.19727
1.06	-7.10938
1.065	-7.10938
1.07	-7.10938
1.075	-7.02148
1.08	-7.02148
1.085	-6.93359
1.09	-6.93359
1.095	-6.8457
1.1	-6.8457
1.105	-6.8457
1.11	-6.75781
1.115	-6.75781
1.12	-6.75781
1.125	-6.66992
1.13	-6.66992
1.135	-6.58203
1.14	-6.58203
1.145	-6.58203
1.15	-6.58203
1.155	-6.49414
1.16	-6.49414
1.165	-6.49414
1.17	-6.49414
1.175	-6.49414
1.18	-6.49414
1.185	-6.40625
1.19	-6.40625
1.195	-6.40625
1.2	-6.40625
1.205	-6.40625
1.21	-6.40625
1.215	-6.40625
1.22	-6.31836
1.225	-6.31836
1.23	-6.31836
1.235	-6.31836
1.24	-6.31836
1.245	-6.31836
1.25	-6.31836
1.255	-6.31836
1.26	-6.31836
1.265	-6.31836
1.27	-6.31836
1.275	-6.31836
1.28	-6.31836
1.285	-6.31836
1.29	-6.31836
1.295	-6.31836
1.3	-6.31836
1.305	-6.31836
1.31	-6.31836
1.315	-6.31836
1.32	-6.31836
1.325	-6.31836
1.33	-6.31836
1.335	-6.31836
1.34	-6.31836
1.345	-6.40625
1.35	-6.40625
1.355	-6.40625
1.36	-6.40625
1.365	-6.40625
1.37	-6.40625
1.375	-6.49414
1.38	-6.49414
1.385	-6.49414
1.39	-6.49414
1.395	-6.49414
1.4	-6.58203
1.405	-6.58203
1.41	-6.58203
1.415	-6.66992
1.42	-6.66992
1.425	-6.66992
1.43	-6.75781
1.435	-6.75781
1.44	-6.75781
1.445	-6.75781
1.45	-6.8457
1.455	-6.8457
1.46	-6.8457
1.465	-6.93359
1.47	-6.93359
1.475	-6.93359
1.48	-6.93359
1.485	-7.02148
1.49	-7.02148
1.495	-7.02148
1.5	-7.10938
1.505	-7.10938
1.51	-7.10938
1.515	-7.19727
1.52	-7.19727
1.525	-7.28516
1.53	-7.28516
1.535	-7.28516
1.54	-7.37305
1.545	-7.37305
1.55	-7.37305
1.555	-7.46094
1.56	-7.46094
1.565	-7.46094
1.57	-7.54883
1.575	-7.54883
1.58	-7.54883
1.585	-7.54883
1.59	-7.54883
1.595	-7.63672
1.6	-7.63672
1.605	-7.63672
1.61	-7.72461
1.615	-7.72461
1.62	-7.72461
1.625	-7.8125
1.63	-7.8125
1.635	-7.8125
1.64	-7.8125
1.645	-7.8125
1.65	-7.90039
1.655	-7.90039
1.66	-7.90039
1.665	-7.90039
1.67	-7.90039
1.675	-7.90039
1.68	-7.98828
1.685	-7.98828
1.69	-7.98828
1.695	-7.98828
1.7	-7.98828
1.705	-7.98828
1.71	-8.07617
1.715	-8.07617
1.72	-8.07617
1.725	-8.07617
1.73	-8.07617
1.735	-8.07617
1.74	-8.07617
1.745	-8.07617
1.75	-8.07617
1.755	-8.07617
1.76	-8.16406
1.765	-8.16406
1.77	-8.16406
1.775	-8.16406
1.78	-8.16406
1.785	-8.16406
1.79	-8.16406
1.795	-8.16406
1.8	-8.16406
1.805	-8.16406
1.81	-8.16406
1.815	-8.16406
1.82	-8.25195
1.825	-8.25195
1.83	-8.25195
1.835	-8.25195
1.84	-8.25195
1.845	-8.25195
1.85	-8.25195
1.855	-8.25195
1.86	-8.25195
1.865	-8.25195
1.87	-8.25195
1.875	-8.25195
1.88	-8.25195
1.885	-8.25195
1.89	-8.25195
1.895	-8.25195
1.9	-8.25195
1.905	-8.25195
1.91	-8.25195
1.915	-8.25195
1.92	-8.33984
1.925	-8.33984
1.93	-8.33984
1.935	-8.33984
1.94	-8.33984
1.945	-8.33984
1.95	-8.33984
1.955	-8.33984
1.96	-8.33984
1.965	-8.33984
1.97	-8.33984
1.975	-8.33984
1.98	-8.33984
1.985	-8.33984
1.99	-8.33984
1.995	-8.33984
2	-8.33984
2.005	-8.42773
2.01	-8.42773
2.015	-8.42773
2.02	-8.42773
2.025	-8.42773
2.03	-8.42773
2.035	-8.42773
2.04	-8.42773
2.045	-8.42773
2.05	-8.42773
2.055	-8.42773
2.06	-8.42773
2.065	-8.42773
2.07	-8.42773
2.075	-8.42773
2.08	-8.42773
2.085	-8.42773
2.09	-8.42773
2.095	-8.42773
2.1	-8.42773
2.105	-8.42773
2.11	-8.51563
2.115	-8.51563
2.12	-8.51563
2.125	-8.51563
2.13	-8.51563
2.135	-8.51563
2.14	-8.51563
2.145	-8.51563
2.15	-8.51563
2.155	-8.51563
2.16	-8.51563
2.165	-8.51563
2.17	-8.51563
2.175	-8.60352
2.18	-8.60352
2.185	-8.60352
2.19	-8.60352
2.195	-8.60352
2.2	-8.60352
2.205	-8.60352
2.21	-8.60352
2.215	-8.60352
2.22	-8.60352
2.225	-8.60352
2.23	-8.60352
2.235	-8.60352
2.24	-8.60352
2.245	-8.60352
2.25	-8.60352
2.255	-8.60352
2.26	-8.60352
2.265	-8.60352
2.27	-8.60352
2.275	-8.69141
2.28	-8.69141
2.285	-8.69141
2.29	-8.69141
2.295	-8.69141
2.3	-8.69141
2.305	-8.69141
2.31	-8.69141
2.315	-8.69141
2.32	-8.69141
2.325	-8.69141
2.33	-8.7793
2.335	-8.7793
2.34	-8.7793
2.345	-8.7793
2.35	-8.7793
2.355	-8.7793
2.36	-8.7793
2.365	-8.7793
2.37	-8.7793
2.375	-8.7793
2.38	-8.7793
2.385	-8.7793
2.39	-8.7793
2.395	-8.7793
2.4	-8.7793
2.405	-8.7793
2.41	-8.7793
2.415	-8.7793
2.42	-8.7793
2.425	-8.7793
2.43	-8.7793
2.435	-8.7793
2.44	-8.7793
2.445	-8.7793
2.45	-8.7793
2.455	-8.7793
2.46	-8.7793
2.465	-8.86719
2.47	-8.86719
2.475	-8.86719
2.48	-8.86719
2.485	-8.86719
2.49	-8.86719
2.495	-8.86719
2.5	-8.86719
2.505	-8.86719
2.51	-8.86719
2.515	-8.86719
2.52	-8.86719
2.525	-8.86719
2.53	-8.86719
2.535	-8.86719
2.54	-8.86719
2.545	-8.86719
2.55	-8.86719
2.555	-8.86719
2.56	-8.86719
2.565	-8.86719
2.57	-8.86719
2.575	-8.86719
2.58	-8.86719
2.585	-8.86719
2.59	-8.86719
2.595	-8.86719
2.6	-8.86719
2.605	-8.86719
2.61	-8.86719
2.615	-8.86719
2.62	-8.86719
2.625	-8.86719
2.63	-8.86719
2.635	-8.86719
2.64	-8.95508
2.645	-8.95508
2.65	-8.95508
2.655	-8.95508
2.66	-8.95508
2.665	-8.95508
2.67	-8.95508
2.675	-8.95508
2.68	-8.95508
2.685	-8.95508
2.69	-8.95508
2.695	-8.95508
2.7	-8.95508
2.705	-8.95508
2.71	-8.95508
2.715	-8.95508
2.72	-8.95508
2.725	-8.95508
2.73	-8.95508
2.735	-8.95508
2.74	-8.95508
2.745	-8.95508
2.75	-8.95508
2.755	-8.95508
2.76	-8.95508
2.765	-8.95508
2.77	-8.95508
2.775	-8.95508
2.78	-8.95508
2.785	-8.95508
2.79	-8.95508
2.795	-8.95508
2.8	-8.95508
2.805	-8.95508
2.81	-8.95508
2.815	-8.95508
2.82	-8.95508
2.825	-8.95508
2.83	-8.95508
2.835	-8.95508
2.84	-8.95508
2.845	-9.04297
2.85	-9.04297
2.855	-9.04297
2.86	-9.04297
2.865	-9.04297
2.87	-9.04297
2.875	-9.04297
2.88	-9.04297
2.885	-9.04297
2.89	-9.04297
2.895	-9.04297
2.9	-9.04297
2.905	-9.04297
2.91	-9.04297
2.915	-9.04297
2.92	-9.04297
2.925	-9.04297
2.93	-9.04297
2.935	-9.04297
2.94	-9.04297
2.945	-9.04297
2.95	-9.04297
2.955	-9.04297
2.96	-9.04297
2.965	-9.04297
2.97	-9.13086
2.975	-9.13086
2.98	-9.13086
2.985	-9.13086
2.99	-9.13086
2.995	-9.13086
3	-9.13086
3.005	-9.13086
3.01	-9.13086
3.015	-9.13086
3.02	-9.13086
3.025	-9.13086
3.03	-9.13086
3.035	-9.13086
3.04	-9.13086
3.045	-9.13086
3.05	-9.13086
3.055	-9.13086
3.06	-9.13086
3.065	-9.13086
3.07	-9.13086
3.075	-9.13086
3.08	-9.13086
3.085	-9.13086
3.09	-9.13086
3.095	-9.13086
3.1	-9.13086
3.105	-9.13086
3.11	-9.13086
3.115	-9.13086
3.12	-9.13086
3.125	-9.13086
3.13	-9.13086
3.135	-9.13086
3.14	-9.13086
3.145	-9.13086
3.15	-9.13086
3.155	-9.13086
3.16	-9.13086
3.165	-9.13086
3.17	-9.13086
3.175	-9.13086
3.18	-9.21875
3.185	-9.21875
3.19	-9.21875
3.195	-9.21875
3.2	-9.21875
3.205	-9.21875
3.21	-9.21875
3.215	-9.21875
3.22	-9.21875
3.225	-9.21875
3.23	-9.21875
3.235	-9.21875
3.24	-9.21875
3.245	-9.21875
3.25	-9.21875
3.255	-9.21875
3.26	-9.21875
3.265	-9.21875
3.27	-9.21875
3.275	-9.21875
3.28	-9.21875
3.285	-9.21875
3.29	-9.21875
3.295	-9.21875
3.3	-9.21875
3.305	-9.21875
3.31	-9.21875
3.315	-9.21875
3.32	-9.21875
3.325	-9.21875
3.33	-9.21875
3.335	-9.21875
3.34	-9.21875
3.345	-9.21875
3.35	-9.21875
3.355	-9.21875
3.36	-9.21875
3.365	-9.21875
3.37	-9.21875
3.375	-9.21875
3.38	-9.21875
3.385	-9.21875
3.39	-9.21875
3.395	-9.21875
3.4	-9.21875
3.405	-9.21875
3.41	-9.21875
3.415	-9.21875
3.42	-9.21875
3.425	-9.21875
3.43	-9.21875
3.435	-9.21875
3.44	-9.21875
3.445	-9.21875
3.45	-9.21875
3.455	-9.21875
3.46	-9.21875
3.465	-9.21875
3.47	-9.21875
3.475	-9.21875
3.48	-9.21875
3.485	-9.21875
3.49	-9.21875
3.495	-9.21875
3.5	-9.30664
3.505	-9.30664
3.51	-9.30664
3.515	-9.30664
3.52	-9.30664
3.525	-9.30664
3.53	-9.30664
3.535	-9.30664
3.54	-9.30664
3.545	-9.30664
3.55	-9.30664
3.555	-9.30664
3.56	-9.30664
3.565	-9.30664
3.57	-9.30664
3.575	-9.30664
3.58	-9.30664
3.585	-9.30664
3.59	-9.30664
3.595	-9.30664
3.6	-9.30664
3.605	-9.30664
3.61	-9.30664
3.615	-9.30664
3.62	-9.30664
3.625	-9.30664
3.63	-9.30664
3.635	-9.30664
3.64	-9.30664
3.645	-9.30664
3.65	-9.30664
3.655	-9.30664
3.66	-9.30664
3.665	-9.30664
3.67	-9.30664
3.675	-9.30664
3.68	-9.30664
3.685	-9.30664
3.69	-9.30664
3.695	-9.30664
3.7	-9.30664
3.705	-9.30664
3.71	-9.30664
3.715	-9.30664
3.72	-9.30664
3.725	-9.30664
3.73	-9.30664
3.735	-9.30664
3.74	-9.30664
3.745	-9.30664
3.75	-9.30664
3.755	-9.30664
3.76	-9.30664
3.765	-9.30664
3.77	-9.30664
3.775	-9.30664
3.78	-9.30664
3.785	-9.30664
3.79	-9.30664
3.795	-9.30664
3.8	-9.30664
3.805	-9.30664
3.81	-9.30664
3.815	-9.30664
3.82	-9.30664
3.825	-9.30664
3.83	-9.30664
3.835	-9.30664
3.84	-9.30664
3.845	-9.30664
3.85	-9.30664
3.855	-9.30664
3.86	-9.30664
3.865	-9.30664
3.87	-9.30664
3.875	-9.30664
3.88	-9.30664
3.885	-9.30664
3.89	-9.30664
3.895	-9.30664
3.9	-9.30664
3.905	-9.30664
3.91	-9.30664
3.915	-9.30664
3.92	-9.30664
3.925	-9.30664
3.93	-9.30664
3.935	-9.30664
3.94	-9.30664
3.945	-9.30664
3.95	-9.30664
3.955	-9.30664
3.96	-9.30664
3.965	-9.30664
3.97	-9.30664
3.975	-9.30664
3.98	-9.30664
3.985	-9.30664
3.99	-9.30664
3.995	-9.30664
4	-9.30664
4.005	-9.30664
4.01	-9.30664
4.015	-9.30664
4.02	-9.30664
4.025	-9.30664
4.03	-9.30664
4.035	-9.30664
4.04	-9.30664
4.045	-9.30664
4.05	-9.30664
4.055	-9.30664
4.06	-9.30664
4.065	-9.30664
4.07	-9.30664
4.075	-9.30664
4.08	-9.30664
4.085	-9.30664
4.09	-9.30664
4.095	-9.30664
4.1	-9.30664
4.105	-9.30664
4.11	-9.30664
4.115	-9.30664
4.12	-9.30664
4.125	-9.30664
4.13	-9.30664
4.135	-9.30664
4.14	-9.30664
4.145	-9.30664
4.15	-9.30664
4.155	-9.30664
4.16	-9.30664
4.165	-9.30664
4.17	-9.30664
4.175	-9.30664
4.18	-9.30664
4.185	-9.30664
4.19	-9.30664
4.195	-9.30664
4.2	-9.30664
4.205	-9.30664
4.21	-9.30664
4.215	-9.30664
4.22	-9.30664
4.225	-9.30664
4.23	-9.30664
4.235	-9.30664
4.24	-9.30664
4.245	-9.30664
4.25	-9.30664
4.255	-9.30664
4.26	-9.30664
4.265	-9.30664
4.27	-9.30664
4.275	-9.30664
4.28	-9.30664
4.285	-9.30664
4.29	-9.30664
4.295	-9.30664
4.3	-9.39453
4.305	-9.39453
4.31	-9.39453
4.315	-9.39453
4.32	-9.39453
4.325	-9.39453
4.33	-9.39453
4.335	-9.39453
4.34	-9.39453
4.345	-9.39453
4.35	-9.39453
4.355	-9.39453
4.36	-9.39453
4.365	-9.39453
4.37	-9.39453
4.375	-9.39453
4.38	-9.39453
4.385	-9.39453
4.39	-9.39453
4.395	-9.39453
4.4	-9.39453
4.405	-9.39453
4.41	-9.39453
4.415	-9.39453
4.42	-9.39453
4.425	-9.39453
4.43	-9.39453
4.435	-9.39453
4.44	-9.39453
4.445	-9.39453
4.45	-9.39453
4.455	-9.39453
4.46	-9.39453
4.465	-9.39453
4.47	-9.39453
4.475	-9.39453
4.48	-9.39453
4.485	-9.39453
4.49	-9.39453
4.495	-9.39453
4.5	-9.39453
4.505	-9.39453
4.51	-9.39453
4.515	-9.39453
4.52	-9.39453
4.525	-9.39453
4.53	-9.39453
4.535	-9.39453
4.54	-9.39453
4.545	-9.39453
4.55	-9.39453
4.555	-9.39453
4.56	-9.39453
4.565	-9.39453
4.57	-9.39453
4.575	-9.39453
4.58	-9.39453
4.585	-9.39453
4.59	-9.39453
4.595	-9.39453
4.6	-9.39453
4.605	-9.39453
4.61	-9.39453
4.615	-9.39453
4.62	-9.39453
4.625	-9.39453
4.63	-9.39453
4.635	-9.39453
4.64	-9.39453
4.645	-9.39453
4.65	-9.39453
4.655	-9.39453
4.66	-9.39453
4.665	-9.39453
4.67	-9.39453
4.675	-9.39453
4.68	-9.39453
4.685	-9.39453
4.69	-9.39453
4.695	-9.39453
4.7	-9.39453
4.705	-9.39453
4.71	-9.39453
4.715	-9.39453
4.72	-9.39453
4.725	-9.39453
4.73	-9.39453
4.735	-9.39453
4.74	-9.39453
4.745	-9.39453
4.75	-9.39453
4.755	-9.39453
4.76	-9.39453
4.765	-9.39453
4.77	-9.39453
4.775	-9.39453
4.78	-9.39453
4.785	-9.39453
4.79	-9.39453
4.795	-9.39453
4.8	-9.39453
4.805	-9.39453
4.81	-9.48242
4.815	-9.48242
4.82	-9.48242
4.825	-9.48242
4.83	-9.48242
4.835	-9.48242
4.84	-9.48242
4.845	-9.48242
4.85	-9.48242
4.855	-9.48242
4.86	-9.48242
4.865	-9.48242
4.87	-9.48242
4.875	-9.48242
4.88	-9.48242
4.885	-9.48242
4.89	-9.48242
4.895	-9.48242
4.9	-9.48242
4.905	-9.48242
4.91	-9.48242
4.915	-9.48242
4.92	-9.48242
4.925	-9.48242
4.93	-9.48242
4.935	-9.48242
4.94	-9.48242
4.945	-9.48242
4.95	-9.48242
4.955	-9.48242
4.96	-9.48242
4.965	-9.48242
4.97	-9.48242
4.975	-9.48242
4.98	-9.48242
4.985	-9.48242
4.99	-9.48242
4.995	-9.48242
5	-9.48242
5.005	-9.48242
5.01	-9.48242
5.015	-9.48242
5.02	-9.48242
5.025	-9.48242
5.03	-9.48242
5.035	-9.48242
5.04	-9.48242
5.045	-9.48242
5.05	-9.48242
5.055	-9.48242
5.06	-9.48242
5.065	-9.48242
5.07	-9.48242
5.075	-9.48242
5.08	-9.48242
5.085	-9.39453
5.09	-9.39453
5.095	-9.39453
5.1	-9.39453
5.105	-9.39453
5.11	-9.39453
5.115	-9.30664
5.12	-9.30664
5.125	-9.30664
5.13	-9.30664
5.135	-9.30664
5.14	-9.21875
5.145	-9.21875
5.15	-9.21875
5.155	-9.21875
5.16	-9.13086
5.165	-9.13086
5.17	-9.13086
5.175	-9.04297
5.18	-9.04297
5.185	-8.95508
5.19	-8.95508
5.195	-8.95508
5.2	-8.95508
5.205	-8.86719
5.21	-8.7793
5.215	-8.7793
5.22	-8.60352
5.225	-8.60352
5.23	-8.51563
5.235	-8.42773
5.24	-8.33984
5.245	-8.25195
5.25	-8.16406
5.255	-8.16406
5.26	-8.07617
5.265	-7.8125
5.27	-7.72461
5.275	-7.54883
5.28	-7.46094
5.285	-7.46094
5.29	-7.28516
5.295	-7.19727
5.3	-7.10938
5.305	-6.8457
5.31	-6.75781
5.315	-6.49414
5.32	-6.31836
5.325	-6.05469
5.33	-5.9668
5.335	-5.70313
5.34	-5.52734
5.345	-5.43945
5.35	-5.26367
5.355	-5.08789
5.36	-5
5.365	-4.82422
5.37	-4.73633
5.375	-4.56055
5.38	-4.38477
5.385	-4.29688
5.39	-4.20898
5.395	-3.94531
5.4	-3.85742
5.405	-3.68164
5.41	-3.59375
5.415	-3.50586
5.42	-3.41797
5.425	-3.1543
5.43	-3.06641
5.435	-2.97852
5.44	-2.71484
5.445	-2.62695
5.45	-2.53906
5.455	-2.27539
5.46	-2.1875
5.465	-1.83594
5.47	-1.74805
5.475	-1.57227
5.48	-1.2207
5.485	-1.13281
5.49	-1.04492
5.495	-0.78125
5.5	-0.693359
5.505	-0.605469
5.51	-0.429688
5.515	-0.253906
5.52	-0.166016
5.525	0.185547
5.53	0.273438
5.535	0.361328
5.54	0.537109
5.545	0.625
5.55	0.712891
5.555	0.888672
5.56	0.976562
5.565	1.06445
5.57	1.24023
5.575	1.32812
5.58	1.41602
5.585	1.5918
5.59	1.67969
5.595	1.85547
5.6	2.03125
5.605	2.11914
5.61	2.20703
5.615	2.38281
5.62	2.4707
5.625	2.55859
5.63	2.73437
5.635	2.82227
5.64	2.91016
5.645	3.08594
5.65	3.17383
5.655	3.34961
5.66	3.4375
5.665	3.61328
5.67	3.70117
5.675	3.78906
5.68	3.87695
5.685	3.96484
5.69	4.05273
5.695	4.31641
5.7	4.4043
5.705	4.58008
5.71	4.66797
5.715	4.66797
5.72	4.84375
5.725	4.93164
5.73	5.01953
5.735	5.19531
5.74	5.19531
5.745	5.2832
5.75	5.37109
5.755	5.37109
5.76	5.45898
5.765	5.63477
5.77	5.63477
5.775	5.72266
5.78	5.81055
5.785	5.89844
5.79	5.89844
5.795	5.98633
5.8	6.07422
5.805	6.07422
5.81	6.16211
5.815	6.16211
5.82	6.25
5.825	6.25
5.83	6.33789
5.835	6.33789
5.84	6.42578
5.845	6.51367
5.85	6.51367
5.855	6.60156
5.86	6.60156
5.865	6.60156
5.87	6.68945
5.875	6.77734
5.88	6.77734
5.885	6.77734
5.89	6.86523
5.895	6.86523
5.9	6.95312
5.905	6.95312
5.91	6.95312
5.915	7.04102
5.92	7.04102
5.925	7.04102
5.93	7.12891
5.935	7.12891
5.94	7.2168
5.945	7.2168
5.95	7.2168
5.955	7.30469
5.96	7.30469
5.965	7.30469
5.97	7.39258
5.975	7.39258
5.98	7.39258
5.985	7.48047
5.99	7.48047
5.995	7.48047
6	7.56836
6.005	7.56836
6.01	7.56836
6.015	7.65625
6.02	7.65625
6.025	7.65625
6.03	7.65625
6.035	7.65625
6.04	7.74414
6.045	7.74414
6.05	7.74414
6.055	7.83203
6.06	7.83203
6.065	7.91992
6.07	7.91992
6.075	7.91992
6.08	8.00781
6.085	8.00781
6.09	8.00781
6.095	8.00781
6.1	8.00781
6.105	8.0957
6.11	8.0957
6.115	8.0957
6.12	8.0957
6.125	8.0957
6.13	8.18359
6.135	8.18359
6.14	8.18359
6.145	8.27148
6.15	8.27148
6.155	8.27148
6.16	8.27148
6.165	8.27148
6.17	8.35937
6.175	8.35937
6.18	8.35937
6.185	8.35937
6.19	8.44727
6.195	8.44727
6.2	8.44727
6.205	8.53516
6.21	8.53516
6.215	8.53516
6.22	8.53516
6.225	8.62305
6.23	8.62305
6.235	8.62305
6.24	8.62305
6.245	8.71094
6.25	8.71094
6.255	8.71094
6.26	8.71094
6.265	8.71094
6.27	8.71094
6.275	8.79883
6.28	8.79883
6.285	8.79883
6.29	8.79883
6.295	8.79883
6.3	8.79883
6.305	8.88672
6.31	8.88672
6.315	8.88672
6.32	8.88672
6.325	8.97461
6.33	8.97461
6.335	8.97461
6.34	8.97461
6.345	8.97461
6.35	8.97461
6.355	8.97461
6.36	9.0625
6.365	9.0625
6.37	9.0625
6.375	9.0625
6.38	9.0625
6.385	9.0625
6.39	9.15039
6.395	9.15039
6.4	9.15039
6.405	9.15039
6.41	9.15039
6.415	9.15039
6.42	9.15039
6.425	9.23828
6.43	9.23828
6.435	9.23828
6.44	9.23828
6.445	9.32617
6.45	9.32617
6.455	9.32617
6.46	9.32617
6.465	9.32617
6.47	9.32617
6.475	9.32617
6.48	9.41406
6.485	9.41406
6.49	9.41406
6.495	9.41406
6.5	9.41406
6.505	9.41406
6.51	9.41406
6.515	9.41406
6.52	9.41406
6.525	9.50195
6.53	9.50195
6.535	9.50195
6.54	9.50195
6.545	9.50195
6.55	9.50195
6.555	9.50195
6.56	9.50195
6.565	9.58984
6.57	9.58984
6.575	9.58984
6.58	9.58984
6.585	9.58984
