time (s) - Front Motor	Motor Voltage (V) - Front Motor	time (s) - Back Motor	Motor Voltage (V) - Back Motor
0	521.344	0	522.595
0.005	395.763	0.005	396.705
0.01	301.967	0.01	301.905
0.015	231.243	0.015	231.19
0.02	176.565	0.02	179.796
0.025	139.093	0.025	141.052
0.03	109.101	0.03	110.589
0.035	86.61	0.035	87.7453
0.04	69.359	0.04	71.0034
0.045	57.432	0.045	57.4435
0.05	47.8672	0.05	47.9006
0.055	40.9361	0.055	40.5088
0.06	35.887	0.06	34.8232
0.065	31.7223	0.065	30.9448
0.07	28.2156	0.07	28.4267
0.075	26.9837	0.075	25.1477
0.08	25.0584	0.08	23.6974
0.085	23.6184	0.085	22.6135
0.09	20.8768	0.09	20.1391
0.095	21.1007	0.095	19.3124
0.1	20.6493	0.1	19.3196
0.105	20.3145	0.105	19.3287
0.11	20.6927	0.11	18.7139
0.115	20.3569	0.115	18.8799
0.12	18.4435	0.12	17.3428
0.125	19.2886	0.125	17.2192
0.13	19.303	0.13	17.7536
0.135	19.3175	0.135	18.1581
0.14	19.9578	0.14	17.8399
0.145	19.8184	0.145	18.2282
0.15	18.6779	0.15	16.2324
0.155	18.8538	0.155	17.0135
0.16	19.3765	0.16	17.2162
0.165	18.3505	0.165	15.4629
0.17	18.6125	0.17	16.4259
0.175	17.7727	0.175	14.861
0.18	18.7998	0.18	15.3397
0.185	17.2852	0.185	14.6604
0.19	18.4293	0.19	15.18
0.195	18.6679	0.195	16.1967
0.2	17.8106	0.2	14.6721
0.205	18.199	0.205	15.8065
0.21	17.4541	0.21	14.3701
0.215	17.9267	0.215	15.5706
0.22	17.6319	0.22	13.7969
0.225	18.0602	0.225	15.1263
0.23	16.3053	0.23	11.5452
0.235	15.3826	0.235	11.7459
0.24	16.9706	0.24	12.9255
0.245	16.2635	0.245	12.3847
0.25	15.9659	0.25	11.7245
0.255	16.7739	0.255	13.5071
0.26	15.3036	0.26	10.2659
0.265	16.6466	0.265	11.9998
0.27	16.2357	0.27	11.3948
0.275	15.2932	0.275	11.5533
0.28	16.8663	0.28	12.701
0.285	16.3864	0.285	11.8977
0.29	15.3922	0.29	11.9075
0.295	15.261	0.295	11.2782
0.3	14.9152	0.3	11.0315
0.305	14.8884	0.305	10.5917
0.31	14.234	0.31	10.8741
0.315	14.3575	0.315	10.4492
0.32	14.4413	0.32	10.1171
0.325	14.2566	0.325	10.0932
0.33	15.629	0.33	11.8728
0.335	12.4365	0.335	7.44362
0.34	13.9929	0.34	10.0828
0.345	11.4183	0.345	5.81819
0.35	12.1568	0.35	6.53129
0.355	12.0761	0.355	7.67804
0.36	12.6298	0.36	7.90126
0.365	12.649	0.365	8.44202
0.37	10.7452	0.37	7.41219
0.375	9.91696	0.375	5.98839
0.38	11.5629	0.38	5.93226
0.385	9.87406	0.385	5.4598
0.39	10.4853	0.39	6.50627
0.395	10.6909	0.395	7.52097
0.4	9.79365	0.4	5.97953
0.405	9.09686	0.405	4.79512
0.41	8.16343	0.41	4.26538
0.415	8.86123	0.415	5.74867
0.42	8.33301	0.42	4.55854
0.425	9.57827	0.425	5.30287
0.43	10.1158	0.43	6.23407
0.435	8.60038	0.435	5.49669
0.44	9.3415	0.44	6.34417
0.445	8.60424	0.445	4.91845
0.45	8.68016	0.45	6.49837
0.455	7.68028	0.455	5.3856
0.46	8.95346	0.46	5.80588
0.465	6.18092	0.465	3.16306
0.47	5.72309	0.47	2.80818
0.475	6.39028	0.475	4.80918
0.48	6.22062	0.48	3.6251
0.485	7.34749	0.485	4.76054
0.49	6.27378	0.49	4.17597
0.495	7.34583	0.495	5.13771
0.5	6.23096	0.5	4.42282
0.505	7.27208	0.505	5.28675
0.51	3.04168	0.51	0.92912
0.515	4.4195	0.515	2.99104
0.52	3.91566	0.52	2.71926
0.525	2.32265	0.525	0.346054
0.53	3.93451	0.53	2.33828
0.535	3.70416	0.535	1.91604
0.54	1.44926	0.54	0.296745
0.545	1.52247	0.545	0.565626
0.55	3.45429	0.55	2.16702
0.555	1.55697	0.555	0.0275098
0.56	1.12942	0.56	0.674918
0.565	2.68049	0.565	2.56518
0.57	-0.399101	0.57	-1.79202
0.575	1.22095	0.575	0.890147
0.58	1.37826	0.58	0.60312
0.585	-3.91705	0.585	-4.24592
0.59	-0.918834	0.59	-1.67111
0.595	-0.976808	0.595	-0.790058
0.6	-4.14506	0.6	-3.72107
0.605	-2.86797	0.605	-3.02417
0.61	-0.513702	0.61	-0.622354
0.615	-1.85332	0.615	-2.40351
0.62	-1.23763	0.62	-2.11336
0.625	-4.52413	0.625	-4.86451
0.63	-3.96143	0.63	-3.40746
0.635	-6.27757	0.635	-6.29377
0.64	-5.36909	0.64	-4.55634
0.645	-6.14756	0.645	-5.18014
0.65	-3.30259	0.65	-2.50024
0.655	-2.84772	0.655	-2.1693
0.66	-4.34838	0.66	-3.46622
0.665	-2.04517	0.665	-1.29127
0.67	-0.092799	0.67	0.0876977
0.675	-0.548911	0.675	-0.315795
0.68	0.359327	0.68	1.40566
0.685	2.03421	0.685	1.67561
0.69	-0.67736	0.69	-0.84325
0.695	0.190084	0.695	0.942471
0.7	-0.843549	0.7	0.607562
0.705	-0.639709	0.705	-0.679392
0.71	-1.52537	0.71	-0.662854
0.715	-0.557649	0.715	0.991524
0.72	-2.16918	0.72	-2.11985
0.725	-1.10019	0.725	-0.155456
0.73	-3.40974	0.73	-2.2605
0.735	-1.71366	0.735	-0.692115
0.74	-0.455622	0.74	0.470001
0.745	-2.6184	0.745	-2.24193
0.75	-1.1942	0.75	-0.746944
0.755	-0.140166	0.755	0.360027
0.76	0.249273	0.76	1.56291
0.765	0.909061	0.765	2.0689
0.77	0.349811	0.77	0.143184
0.775	0.94378	0.775	0.958694
0.78	1.37502	0.78	1.55594
0.785	1.29726	0.785	2.37641
0.79	-1.09878	0.79	-1.3608
0.795	-0.231627	0.795	-0.25313
0.8	0.0174466	0.8	0.950063
0.805	0.184805	0.805	1.84302
0.81	1.30328	0.81	1.49084
0.815	1.50447	0.815	1.83542
0.82	-2.46375	0.82	-0.477621
0.825	-0.7634	0.825	-0.314469
0.83	-0.125906	0.83	0.416508
0.835	0.337697	0.835	0.950063
0.84	0.283917	0.84	1.72248
0.845	1.23637	0.845	1.27973
0.85	1.31287	0.85	1.5562
0.855	1.35565	0.855	1.7488
0.86	1.37312	0.86	1.87848
0.865	-0.293806	0.865	0.29554
0.87	0.717706	0.87	0.118919
0.875	0.838379	0.875	0.594873
0.88	-1.13817	0.88	-0.341484
0.885	0.0229185	0.885	-0.415114
0.89	-1.79665	0.89	-1.14044
0.895	-1.14337	0.895	-0.430383
0.9	-2.09509	0.9	-1.81676
0.905	-1.41425	0.905	-0.979262
0.91	-0.918502	0.91	-0.366187
0.915	1.10381	0.915	1.74395
0.92	1.19329	0.92	1.42206
0.925	1.00408	0.925	1.40696
0.93	-0.431219	0.93	-0.671805
0.935	-0.253635	0.935	-0.213267
0.94	-0.135438	0.94	0.115474
0.945	-0.0618007	0.945	0.346849
0.95	2.26927	0.95	1.5451
0.955	1.72839	0.955	1.40096
0.96	1.30767	0.96	1.27763
0.965	0.977069	0.965	1.1699
0.97	1.33951	0.97	0.448363
0.975	0.972965	0.975	0.515203
0.98	-1.36941	0.98	-0.728417
0.985	0.795332	0.985	1.01942
0.99	0.511429	0.99	0.905479
0.995	0.283321	0.995	0.804664
1	1.76244	1	2.37907
1.005	1.20568	1.005	1.89361
1.01	1.39838	1.01	0.88864
1.015	2.95673	1.015	2.02122
1.02	2.0775	1.02	1.58621
1.025	1.40283	1.025	1.24452
1.03	2.93389	1.03	2.25125
1.035	2.03415	1.035	1.72181
1.04	1.34405	1.04	1.30926
1.045	3.10204	1.045	2.02427
1.05	2.13105	1.05	1.51742
1.055	1.38748	1.055	1.12177
1.06	1.43993	1.06	0.184014
1.065	2.50602	1.065	1.75382
1.07	0.599414	1.07	-1.02615
1.075	1.46012	1.075	1.19979
1.08	-0.457233	1.08	-1.23144
1.085	1.02373	1.085	0.627654
1.09	1.0936	1.09	-0.270025
1.095	0.894206	1.095	-0.722607
1.1	2.01271	1.1	0.96955
1.105	0.532248	1.105	-2.10572
1.11	1.71753	1.11	-0.106448
1.115	2.60548	1.115	1.3918
1.12	0.952054	1.12	-1.82894
1.125	2.00758	1.125	0.0611874
1.13	1.13278	1.13	-0.187858
1.135	2.75198	1.135	0.649508
1.14	3.34203	1.14	1.89954
1.145	2.1181	1.145	1.17041
1.15	3.2369	1.15	1.88622
1.155	3.69305	1.155	2.80366
1.16	3.3811	1.16	0.812637
1.165	4.17873	1.165	1.58715
1.17	4.39398	1.17	2.5486
1.175	4.5543	1.175	3.26838
1.18	4.67344	1.18	3.80691
1.185	4.10871	1.185	1.53169
1.19	4.32979	1.19	2.47998
1.195	4.49448	1.195	3.18987
1.2	5.00381	1.2	3.33402
1.205	3.9629	1.205	1.5318
1.21	4.2087	1.21	2.45296
1.215	4.3919	1.215	3.14248
1.22	5.15363	1.22	3.0328
1.225	5.48746	1.225	3.18552
1.23	4.70186	1.23	1.00276
1.235	5.14419	1.235	1.63341
1.24	5.47986	1.24	2.09995
1.245	6.36101	1.245	1.81793
1.25	6.01557	1.25	2.61019
1.255	6.14228	1.255	2.81607
1.26	6.47976	1.26	2.7255
1.265	6.10844	1.265	3.27948
1.27	6.21574	1.27	3.30665
1.275	6.53867	1.275	3.08205
1.28	6.15643	1.28	3.53551
1.285	5.86859	1.285	3.87423
1.29	6.66398	1.29	3.11448
1.295	6.25422	1.295	3.54844
1.3	6.33269	1.3	3.48559
1.305	6.00852	1.305	3.81895
1.31	8.44206	1.31	4.72057
1.315	7.61004	1.315	4.74969
1.32	7.37184	1.32	4.38322
1.325	7.43566	1.325	3.86341
1.33	7.24606	1.33	3.70853
1.335	8.38626	1.335	5.63828
1.34	8.60182	1.34	4.42094
1.345	8.38272	1.345	3.88626
1.35	9.2594	1.35	5.77259
1.355	8.8904	1.355	4.90964
1.36	8.37623	1.36	4.49745
1.365	9.89852	1.365	5.60876
1.37	8.76499	1.37	5.41334
1.375	10.5916	1.375	5.91844
1.38	9.30445	1.38	5.65023
1.385	8.96353	1.385	4.82231
1.39	9.7489	1.39	6.48877
1.395	10.9769	1.395	7.12637
1.4	9.62268	1.4	6.57571
1.405	9.2315	1.405	5.53599
1.41	10.2178	1.41	6.8051
1.415	9.06415	1.415	6.34621
1.42	9.86335	1.42	7.66622
1.425	9.04941	1.425	6.7656
1.43	8.58352	1.43	5.94338
1.435	10.1421	1.435	6.74729
1.44	10.3144	1.44	8.37376
1.445	9.41223	1.445	7.32115
1.45	8.49324	1.45	6.77193
1.455	9.70698	1.455	7.78571
1.46	9.34956	1.46	6.50992
1.465	8.45731	1.465	6.1752
1.47	10.9696	1.47	9.40222
1.475	9.93013	1.475	8.14058
1.48	9.79975	1.48	9.87394
1.485	9.05249	1.485	8.5197
1.49	9.91518	1.49	9.40973
1.495	9.14901	1.495	8.18674
1.5	9.61059	1.5	9.56217
1.505	8.92546	1.505	8.32139
1.51	9.68638	1.51	9.44496
1.515	8.98438	1.515	8.25671
1.52	9.34572	1.52	9.80664
1.525	9.76583	1.525	10.8472
1.53	9.04967	1.53	9.3553
1.535	9.63896	1.535	10.439
1.54	10.3756	1.54	10.9844
1.545	8.50261	1.545	10.5154
1.55	9.37786	1.55	11.2128
1.555	8.37476	1.555	10.092
1.56	8.89224	1.56	11.3107
1.565	8.38964	1.565	9.81206
1.57	8.51371	1.57	11.5162
1.575	9.13786	1.575	12.2907
1.58	8.57485	1.58	10.5994
1.585	8.65364	1.585	12.1591
1.59	8.59091	1.59	10.1474
1.595	7.14608	1.595	10.035
1.6	7.95562	1.6	11.3868
1.605	7.67215	1.605	9.98799
1.61	8.49601	1.61	11.2318
1.615	7.30895	1.615	10.6664
1.62	8.84434	1.62	11.1461
1.625	7.71609	1.625	10.4824
1.63	7.10281	1.63	9.75041
1.635	8.68669	1.635	10.487
1.64	7.59483	1.64	10.0161
1.645	6.62192	1.645	9.81554
1.65	8.31796	1.65	10.5689
1.655	6.9233	1.655	10.4975
1.66	6.87906	1.66	9.4409
1.665	7.22945	1.665	8.26358
1.67	6.48152	1.67	8.39002
1.675	8.20587	1.675	9.52904
1.68	7.2194	1.68	9.35999
1.685	6.47399	1.685	9.23751
1.69	8.82572	1.69	9.56438
1.695	7.68654	1.695	9.40951
1.7	6.82662	1.7	9.29767
1.705	6.80161	1.705	8.59264
1.71	8.83186	1.71	9.34442
1.715	7.693	1.715	9.26684
1.72	7.45882	1.72	8.58751
1.725	7.04133	1.725	8.31867
1.73	8.63171	1.73	9.54316
1.735	7.93177	1.735	9.05131
1.74	7.64493	1.74	8.44317
1.745	7.81346	1.745	7.60226
1.75	7.31617	1.75	7.59412
1.755	6.94278	1.755	7.58728
1.76	8.56626	1.76	9.00829
1.765	7.89116	1.765	8.66385
1.77	8.00993	1.77	7.77933
1.775	7.71387	1.775	7.49996
1.78	7.25002	1.78	7.53113
1.785	8.56714	1.785	9.21919
1.79	8.52919	1.79	8.20817
1.795	7.87708	1.795	8.07248
1.8	8.0131	1.8	7.34454
1.805	7.49147	1.805	7.42116
1.81	7.09987	1.81	7.47793
1.815	9.09668	1.815	8.55973
1.82	8.94525	1.82	7.7173
1.825	8.20805	1.825	7.70807
1.83	8.04174	1.83	7.31352
1.835	8.16028	1.835	6.77332
1.84	7.62555	1.84	6.99076
1.845	9.51503	1.845	8.19308
1.85	8.65765	1.85	8.06653
1.855	8.63976	1.855	7.34548
1.86	8.00274	1.86	7.4273
1.865	8.15012	1.865	6.86253
1.87	7.63706	1.87	7.06156
1.875	9.30427	1.875	8.48861
1.88	8.52162	1.88	8.28924
1.885	8.5598	1.885	7.51358
1.89	7.96485	1.89	7.55446
1.895	8.14381	1.895	6.959
1.9	8.04139	1.9	6.74808
1.905	9.2478	1.905	8.63651
1.91	9.12691	1.91	7.77583
1.915	8.41268	1.915	7.75297
1.92	8.5022	1.92	7.10971
1.925	7.94578	1.925	7.24991
1.93	7.52818	1.93	7.35443
1.935	7.21469	1.935	7.43219
1.94	9.27016	1.94	8.5298
1.945	8.53733	1.945	8.32478
1.95	8.37439	1.95	7.78346
1.955	8.49553	1.955	7.13324
1.96	7.96285	1.96	7.26823
1.965	8.18855	1.965	6.74339
1.97	7.73429	1.97	6.97242
1.975	7.78027	1.975	6.75663
1.98	9.72351	1.98	8.01595
1.985	8.90653	1.985	7.93223
1.99	8.29354	1.99	7.86885
1.995	8.45904	1.995	7.19524
2	7.95965	2	7.31271
2.005	7.58486	2.005	7.40021
2.01	9.5944	2.01	8.50516
2.015	8.82716	2.015	8.30568
2.02	8.877	2.02	7.53001
2.025	8.67782	2.025	7.184
2.03	8.77183	2.03	6.68031
2.035	8.21884	2.035	6.92523
2.04	9.08233	2.04	9.16068
2.045	9.0862	2.045	8.17848
2.05	8.46562	2.05	8.06453
2.055	7.99999	2.055	7.97851
2.06	8.27604	2.06	7.28796
2.065	7.85961	2.065	7.39275
2.07	9.83796	2.07	8.5107
2.075	9.04737	2.075	8.321
2.08	8.45425	2.08	8.17818
2.085	8.00923	2.085	8.07053
2.09	7.67529	2.09	7.98924
2.095	7.42465	2.095	7.92773
2.1	7.86197	2.1	7.25558
2.105	7.5665	2.105	7.37419
2.11	7.34473	2.11	7.4626
2.115	7.41675	2.115	7.28984
2.12	8.89457	2.12	9.06652
2.125	8.35189	2.125	8.74761
2.13	7.94472	2.13	8.50791
2.135	7.63918	2.135	8.3276
2.14	8.03534	2.14	7.56636
2.145	7.70904	2.145	7.61818
2.15	7.46415	2.15	7.65652
2.155	6.89338	2.155	8.07169
2.16	7.47248	2.16	7.3752
2.165	7.28338	2.165	7.47557
2.17	7.1414	2.17	7.55032
2.175	8.70015	2.175	9.27126
2.18	8.21819	2.18	8.91056
2.185	8.48205	2.185	8.01404
2.19	8.05654	2.19	7.96442
2.195	7.73727	2.195	7.92669
2.2	7.49768	2.2	7.89788
2.205	7.55638	2.205	7.63723
2.21	7.35886	2.21	7.68264
2.215	7.21059	2.215	7.71619
2.22	7.09925	2.22	7.74084
2.225	7.0156	2.225	7.75882
2.23	6.95273	2.23	7.77179
2.235	8.57084	2.235	9.4464
2.24	8.75889	2.24	8.4255
2.245	8.27654	2.245	8.2826
2.25	7.91466	2.25	8.17493
2.255	7.64313	2.255	8.09369
2.26	7.43937	2.26	8.03227
2.265	7.91191	2.265	7.36023
2.27	7.25598	2.27	7.86592
2.275	7.14579	2.275	7.86283
2.28	7.06302	2.28	7.86002
2.285	7.00083	2.285	7.85742
2.29	9.24495	2.29	8.8949
2.295	8.65378	2.295	8.6449
2.3	8.21031	2.3	8.45693
2.305	7.87761	2.305	8.31548
2.31	7.62799	2.31	8.20892
2.315	7.44067	2.315	8.12852
2.32	7.92558	2.32	7.44226
2.325	7.66588	2.325	7.55037
2.33	7.47102	2.33	7.63097
2.335	7.32478	2.335	7.69095
2.34	7.215	2.34	7.73545
2.345	7.75806	2.345	7.14288
2.35	7.54198	2.35	7.32124
2.355	9.04523	2.355	9.11993
2.36	8.52169	2.36	8.8176
2.365	8.12897	2.365	8.59039
2.37	7.83435	2.37	8.41953
2.375	7.61331	2.375	8.29092
2.38	7.83441	2.38	7.80706
2.385	8.24377	2.385	7.20009
2.39	7.92744	2.39	7.36768
2.395	7.69012	2.395	7.49291
2.4	7.51206	2.4	7.58638
2.405	7.37844	2.405	7.65602
2.41	7.27815	2.41	7.70779
2.415	8.86826	2.415	9.41155
2.42	8.40989	2.42	9.03804
2.425	8.45301	2.425	8.37053
2.43	8.34196	2.43	8.01278
2.435	8.01721	2.435	7.98544
2.44	8.16055	2.44	7.57754
2.445	7.88613	2.445	7.65304
2.45	7.29331	2.45	8.09618
2.455	7.61746	2.455	7.65927
2.46	7.47865	2.46	7.71302
2.465	7.37449	2.465	7.75289
2.47	7.29632	2.47	7.78235
2.475	7.23764	2.475	7.80401
2.48	9.48445	2.48	8.85973
2.485	9.2823	2.485	8.23652
2.49	8.7488	2.49	8.15056
2.495	8.34863	2.495	8.08567
2.5	8.04848	2.5	8.03658
2.505	8.21028	2.505	7.61239
2.51	7.94972	2.51	7.6757
2.515	7.75428	2.515	7.72275
2.52	7.60766	2.52	7.75762
2.525	7.49766	2.525	7.78335
2.53	8.04061	2.53	7.17674
2.535	7.82452	2.535	7.34463
2.54	7.66242	2.54	7.47013
2.545	7.54081	2.545	7.56383
2.55	7.83651	2.55	7.24673
2.555	7.6764	2.555	7.39035
2.56	9.22167	2.56	9.16304
2.565	9.11667	2.565	8.45431
2.57	8.65604	2.57	8.30423
2.575	8.31056	2.575	8.19126
2.58	8.05143	2.58	8.10613
2.585	7.85707	2.585	8.04188
2.59	8.09823	2.59	7.60634
2.595	7.89723	2.595	7.66114
2.6	8.37194	2.6	7.07636
2.605	8.10469	2.605	7.26064
2.61	7.90424	2.61	7.39845
2.615	7.75389	2.615	7.5014
2.62	7.64112	2.62	7.57821
2.625	7.94347	2.625	7.24846
2.63	7.78836	2.63	7.38261
2.635	9.33741	2.635	9.14821
2.64	8.84831	2.64	8.82114
2.645	8.48149	2.645	8.57544
2.65	8.59334	2.65	8.00384
2.655	8.29536	2.655	7.95662
2.66	8.07188	2.66	7.92081
2.665	7.90428	2.665	7.89357
2.67	7.77859	2.67	7.87276
2.675	7.68432	2.675	7.85676
2.68	8.00058	2.68	7.45743
2.685	7.85591	2.685	7.53941
2.69	7.74742	2.69	7.60051
2.695	7.66606	2.695	7.64595
2.7	7.60504	2.7	7.67964
2.705	7.55929	2.705	7.70453
2.71	7.52498	2.71	7.7228
2.715	8.12474	2.715	7.11064
2.72	7.95129	2.72	7.27441
2.725	7.82121	2.725	7.39685
2.73	7.72366	2.73	7.48829
2.735	7.65051	2.735	7.55648
2.74	7.59565	2.74	7.60724
2.745	9.60685	2.745	8.92337
2.75	9.08253	2.75	8.64107
2.755	9.07626	2.755	8.04204
2.76	8.68972	2.76	7.97425
2.765	8.39984	2.765	7.92305
2.77	8.18246	2.77	7.88428
2.775	8.01945	2.775	7.85484
2.78	7.89722	2.78	7.83238
2.785	7.80557	2.785	7.81518
2.79	7.73686	2.79	7.8019
2.795	7.68536	2.795	7.79158
2.8	7.64676	2.8	7.78347
2.805	7.61784	2.805	7.77702
2.81	7.59617	2.81	7.77181
2.815	7.57995	2.815	7.76754
2.82	7.56781	2.82	7.76397
2.825	7.94568	2.825	7.37397
2.83	7.4603	2.83	7.84992
2.835	7.8651	2.835	7.43771
2.84	7.78686	2.84	7.51004
2.845	7.72821	2.845	7.56392
2.85	7.68425	2.85	7.60396
2.855	8.03825	2.855	7.24668
2.86	7.92192	2.86	7.36022
2.865	7.83469	2.865	7.445
2.87	7.7693	2.87	7.50822
2.875	7.0948	2.875	8.18075
2.88	9.50311	2.88	9.10142
2.885	9.03521	2.885	8.76396
2.89	8.68434	2.89	8.51051
2.895	8.42123	2.895	8.32008
2.9	7.59847	2.9	8.80238
2.905	8.23019	2.905	7.91501
2.91	8.08076	2.91	7.87241
2.915	7.34325	2.915	8.46559
2.92	8.03892	2.92	7.66137
2.925	7.93744	2.925	7.68113
2.93	7.62284	2.93	7.93413
2.935	7.62835	2.935	7.88213
2.94	7.63253	2.94	7.84279
2.945	7.6357	2.945	7.81293
2.95	7.63813	2.95	7.79018
2.955	7.64	2.955	7.77278
2.96	7.64144	2.96	7.75938
2.965	7.64257	2.965	7.74898
2.97	7.64346	2.97	7.74083
2.975	8.03112	2.975	7.34743
2.98	7.94005	2.98	7.43389
2.985	7.87179	2.985	7.49839
2.99	7.82064	2.99	7.54642
2.995	7.78232	2.995	7.58209
3	7.75363	3	7.6085
3.005	7.73215	3.005	7.62796
3.01	7.71609	3.01	7.6422
3.015	7.70409	3.015	7.65254
3.02	8.08208	3.02	7.273
3.025	7.98376	3.025	7.36986
3.03	7.91006	3.03	7.44215
3.035	7.85483	3.035	7.49603
3.04	7.81345	3.04	7.53609
3.045	7.78247	3.045	7.56579
3.05	7.13379	3.05	8.21319
3.055	7.2706	3.055	8.07512
3.06	7.7602	3.06	7.58428
3.065	7.74558	3.065	7.59767
3.07	7.73465	3.07	7.60736
3.075	7.72651	3.075	7.61428
3.08	7.72044	3.08	7.61913
3.085	7.71593	3.085	7.62242
3.09	7.7126	3.09	7.62453
3.095	7.71014	3.095	7.62578
3.1	7.70835	3.1	7.62636
3.105	7.70704	3.105	7.62645
3.11	7.70611	3.11	7.62617
3.115	8.0924	3.115	7.23867
3.12	8.00029	3.12	7.32956
3.125	7.93126	3.125	7.39739
3.13	7.87953	3.13	7.44791
3.135	7.84078	3.135	7.48545
3.14	7.81176	3.14	7.51326
3.145	7.5515	3.145	7.7723
3.15	7.59776	3.15	7.72484
3.155	7.6325	3.155	7.68889
3.16	7.65859	3.16	7.66158
3.165	7.67821	3.165	7.64075
3.17	7.69297	3.17	7.62479
3.175	7.70408	3.175	7.61247
3.18	7.71245	3.18	7.60288
3.185	7.71878	3.185	7.59535
3.19	8.11051	3.19	7.2024
3.195	8.02249	3.195	7.28921
3.2	7.95652	3.2	7.35398
3.205	7.90708	3.205	7.4022
3.21	7.87005	3.21	7.43803
3.215	7.84231	3.215	7.46455
3.22	8.2085	3.22	7.09715
3.225	7.47585	3.225	7.8286
3.23	7.54967	3.23	7.75357
3.235	7.60507	3.235	7.69695
3.24	8.03362	3.24	7.26719
3.245	9.6386	3.245	8.99179
3.25	9.19151	3.25	8.63403
3.255	8.85625	3.255	8.36537
3.26	8.60486	3.26	8.16356
3.265	8.41639	3.265	8.01187
3.27	8.66204	3.27	7.51084
3.275	8.46448	3.275	7.5166
3.28	8.31636	3.28	7.52059
3.285	7.57986	3.285	8.14874
3.29	7.65082	3.29	7.99626
3.295	7.70409	3.295	7.88157
3.3	7.74411	3.3	7.79523
3.305	7.77419	3.305	7.73015
3.31	7.7968	3.31	7.68102
3.315	8.20077	3.315	7.25689
3.32	8.12195	3.32	7.32034
3.325	8.06289	3.325	7.3676
3.33	8.01865	3.33	7.40273
3.335	7.98554	3.335	7.42874
3.34	7.96076	3.34	7.44793
3.345	7.94224	3.345	7.462
3.35	8.31536	3.35	7.08527
3.355	7.58791	3.355	7.80975
3.36	8.29113	3.36	7.10404
3.365	8.19534	3.365	7.19769
3.37	7.49808	3.37	7.8931
3.375	7.59846	3.375	7.79105
3.38	8.06076	3.38	7.32724
3.385	8.02567	3.385	7.36093
3.39	7.99942	3.39	7.38587
3.395	7.97979	3.395	7.40426
3.4	7.96512	3.4	7.41772
3.405	7.95419	3.405	7.42749
3.41	7.94604	3.41	7.4345
3.415	7.93999	3.415	7.43943
3.42	7.93552	3.42	7.4428
3.425	7.30674	3.425	8.07049
3.43	7.84543	3.43	7.53072
3.435	7.86765	3.435	7.50743
3.44	7.88437	3.44	7.48964
3.445	7.89697	3.445	7.47597
3.45	7.90647	3.45	7.4654
3.455	7.91366	3.455	7.45715
3.46	7.91911	3.46	7.45063
3.465	7.92326	3.465	7.44543
3.47	7.92643	3.47	7.4412
3.475	7.30338	3.475	8.06319
3.48	8.47186	3.48	6.89365
3.485	7.71765	3.485	7.6468
3.49	7.77533	3.49	7.58807
3.495	7.81864	3.495	7.54369
3.5	7.85119	3.5	7.51009
3.505	7.87565	3.505	7.48457
3.51	7.89406	3.51	7.46511
3.515	7.90792	3.515	7.45019
3.52	7.91838	3.52	7.43867
3.525	7.92628	3.525	7.42972
3.53	7.93226	3.53	7.42268
3.535	7.31132	3.535	8.04256
3.54	7.8559	3.54	7.49693
3.545	7.88252	3.545	7.46925
3.55	7.90254	3.55	7.44817
